DATE 2015:209:19:29:07 obsn   0 az 244 el 50 freq_MHz  1421.5000 Tsys 188.600 Tant 890.200 vlsr    9.45 glat 30.168 glon 205.831 source Sun 
Fstart 1420.497 fstop 1422.503 spacing 0.009375 bw    2.400 fbw    2.000 MHz nfreq 256 nsam 1048576 npoint 214 integ     4 sigma    0.932 bsw 0
Spectrum 
 717.002  719.388  710.177  708.550  711.175  715.765  713.993  708.786  710.286  724.802  720.603  705.167  717.057  713.803  713.600  713.434  721.588  722.620  720.784  715.048  711.361  715.743  710.806  712.755  709.413  706.460  717.183  724.518  711.212  715.716  714.870  712.770  715.578  716.489  706.103  713.835  708.401  711.176  724.352  704.442  719.985  711.198  711.816  715.527  711.719  711.963  710.744  714.669  705.743  714.772  706.069  714.383  717.001  718.540  717.340  713.678  711.759  723.101  718.915  714.840  715.096  708.992  713.169  717.537  715.171  719.619  721.050  721.638  714.258  710.783  710.453  713.723  708.854  715.477  713.117  710.317  713.964  713.749  714.238  713.348  712.539  708.415  717.159  726.584  710.464  715.656  711.265  714.110  720.700  710.235  713.375  718.451  718.672  718.322  721.692  723.310  718.199  720.222  718.901  711.758  717.326  718.482  716.765  711.668  719.088  710.999  714.723  708.998  718.800  715.819  710.211  718.424  719.478  713.477  716.488  718.560  717.930  712.304  722.069  714.331  716.459  712.730  718.489  718.963  720.599  718.860  713.915  716.303  723.695  727.359  728.441  719.012  715.688  718.622  720.193  722.638  715.872  726.540  717.731  719.048  722.106  713.211  716.049  718.300  717.415  725.613  720.117  722.453  721.933  718.201  716.484  722.294  718.824  719.633  718.752  721.037  717.981  718.383  720.897  718.140  715.204  718.818  719.189  720.646  717.589  719.017  724.651  720.081  716.166  712.178  718.791  711.163  716.997  716.259  710.519  715.001  713.158  712.896  721.363  720.529  718.070  717.450  721.208  722.946  718.872  723.576  726.148  723.649  724.117  717.638  723.344  718.796  718.225  719.633  717.606  712.931  721.102  715.120  715.920  716.318  714.033  722.204  716.513  722.731  725.126  714.608  717.575  717.048  730.619  722.117  719.841  729.511  721.064  729.547 
DATE 2015:209:19:29:20 obsn   1 az 244 el 50 freq_MHz  1421.5000 Tsys 188.600 Tant 897.315 vlsr    9.45 glat 30.168 glon 205.831 source Sun 
Fstart 1420.497 fstop 1422.503 spacing 0.009375 bw    2.400 fbw    2.000 MHz nfreq 256 nsam 1048576 npoint 214 integ     7 sigma    0.761 bsw 0
Spectrum 
 837.949  841.871  830.248  826.015  828.669  839.218  831.810  827.134  831.220  842.191  838.838  826.573  836.852  830.676  834.048  833.894  843.405  837.593  840.335  833.151  829.325  834.417  830.321  833.363  836.133  832.564  833.668  843.474  832.202  830.625  833.865  830.655  842.952  833.178  830.245  838.873  829.731  835.032  848.518  826.485  837.902  834.520  832.013  834.698  829.873  827.965  830.726  836.721  828.870  836.069  824.862  834.013  834.988  837.512  836.473  824.393  835.010  837.633  836.700  833.467  834.982  832.760  833.724  834.570  836.425  841.678  850.634  840.355  831.791  835.358  833.263  834.701  828.046  835.234  832.359  833.059  830.529  834.143  840.380  829.799  835.195  837.500  843.817  849.828  831.845  838.726  834.629  835.187  838.549  831.864  840.924  836.836  834.418  842.616  841.720  837.859  841.531  839.497  838.702  835.530  839.831  837.722  838.913  831.253  838.182  835.246  836.012  829.729  837.397  838.587  832.283  838.506  840.259  835.661  837.017  837.969  835.817  838.532  839.806  834.503  837.207  840.314  838.165  843.077  844.700  841.203  837.405  839.132  843.229  846.447  848.020  840.646  832.637  844.280  844.597  845.015  839.128  846.941  839.986  840.349  842.233  831.976  836.812  842.468  840.127  848.259  845.745  843.855  843.498  839.803  842.897  842.178  840.275  836.385  845.044  843.480  841.163  839.022  845.719  841.330  836.064  839.076  837.398  840.294  844.262  841.461  841.733  840.704  842.625  833.642  840.529  833.658  842.661  837.959  836.059  839.007  836.591  836.197  839.996  837.143  837.920  841.649  841.521  845.127  840.709  849.123  843.419  844.685  848.959  839.167  847.647  845.458  843.741  837.884  846.530  837.955  842.325  840.722  837.746  838.875  837.545  846.611  838.472  847.962  853.266  841.058  841.212  839.433  859.004  846.058  840.806  851.382  845.722  851.303 
DATE 2015:209:19:29:33 obsn   2 az 244 el 50 freq_MHz  1421.5000 Tsys 188.600 Tant 907.336 vlsr    9.45 glat 30.168 glon 205.832 source Sun 
Fstart 1420.497 fstop 1422.503 spacing 0.009375 bw    2.400 fbw    2.000 MHz nfreq 256 nsam 1048576 npoint 214 integ     9 sigma    0.659 bsw 0
Spectrum 
 900.871  901.809  892.629  889.183  891.912  902.253  895.143  891.858  894.191  900.935  899.749  892.577  900.190  895.535  899.763  898.731  908.068  897.406  899.869  896.984  893.950  895.052  893.538  895.093  894.865  893.067  896.793  899.709  893.053  888.647  895.738  894.270  904.598  895.149  895.891  897.461  892.293  900.225  912.126  890.042  899.318  896.739  896.476  898.255  893.228  889.671  893.432  899.983  889.986  895.147  886.648  894.883  898.053  896.593  897.378  889.559  896.625  899.633  897.920  897.730  897.330  893.379  894.685  899.618  895.133  904.830  916.672  902.767  894.514  902.723  894.278  898.305  889.744  894.990  895.029  892.485  890.967  894.215  900.854  892.786  899.764  902.311  906.273  910.540  896.082  903.745  896.402  895.411  900.744  894.892  898.395  898.678  898.652  904.418  898.336  902.307  901.385  902.043  899.388  897.736  900.268  900.056  902.450  891.679  899.246  900.039  902.151  895.732  895.497  901.343  895.804  901.265  904.904  898.135  897.889  900.749  897.642  900.721  902.189  900.521  899.803  904.227  906.325  905.636  907.637  902.966  899.867  902.985  905.030  908.390  910.474  902.305  900.239  906.251  908.277  910.382  901.986  908.604  901.818  905.330  904.460  896.726  902.628  901.918  900.374  907.522  906.157  908.111  905.852  905.546  907.266  903.756  902.323  903.016  907.076  909.988  903.866  901.375  906.202  904.457  904.583  899.713  898.713  902.336  906.011  907.414  903.666  898.862  906.345  899.433  907.747  897.370  905.251  898.677  898.419  903.459  902.215  900.790  903.234  900.859  899.879  905.116  905.141  907.717  904.119  909.992  906.517  909.095  909.438  902.853  912.137  905.876  903.928  904.249  908.203  903.898  906.940  902.144  903.043  903.276  902.147  908.984  903.008  906.505  914.760  903.309  902.598  903.411  925.236  910.980  905.943  914.721  908.496  914.740 
DATE 2015:209:19:29:47 obsn   3 az 244 el 50 freq_MHz  1421.5000 Tsys 188.600 Tant 910.409 vlsr    9.45 glat 30.169 glon 205.832 source Sun 
Fstart 1420.497 fstop 1422.503 spacing 0.009375 bw    2.400 fbw    2.000 MHz nfreq 256 nsam 1048576 npoint 214 integ    11 sigma    0.589 bsw 0
Spectrum 
 937.011  939.673  931.752  928.028  932.640  939.288  931.299  929.464  934.966  938.358  936.001  931.543  938.702  937.888  937.313  937.205  946.771  937.628  938.616  935.463  935.536  934.637  934.324  931.770  933.062  934.815  934.788  936.645  932.175  932.113  934.933  932.318  945.436  932.732  934.802  937.771  931.459  936.532  951.596  928.931  937.998  936.893  936.107  936.022  931.830  930.195  929.793  934.430  929.099  933.953  930.052  933.608  937.536  935.392  934.707  928.603  935.765  939.301  935.418  937.065  933.407  931.919  932.912  938.448  935.929  943.924  956.941  938.271  934.100  941.894  935.085  938.048  929.726  931.424  933.945  934.917  932.050  931.230  942.924  932.066  939.842  939.991  944.193  947.135  934.600  941.529  936.674  935.793  941.303  933.497  939.643  936.851  936.304  943.624  939.601  937.674  940.726  939.481  936.151  935.343  940.103  938.483  940.598  931.420  939.438  938.879  945.836  936.764  934.613  943.778  935.045  938.757  941.274  935.681  935.375  938.878  935.078  939.535  939.824  941.713  937.319  942.896  946.841  945.573  943.516  942.600  939.182  941.930  945.908  948.327  949.229  940.438  936.876  945.194  949.223  946.054  937.453  946.173  943.911  945.164  946.330  936.355  942.050  941.670  940.666  948.021  946.464  948.322  943.316  945.220  947.890  942.378  946.013  941.459  945.477  950.476  944.822  941.608  944.681  942.519  944.996  942.565  939.953  940.550  943.326  946.941  943.639  938.887  944.860  936.736  946.567  937.846  945.886  936.985  937.996  943.787  941.286  940.868  943.867  939.767  939.801  944.804  944.807  945.014  942.422  946.606  948.073  948.299  948.005  942.619  950.193  946.046  943.497  946.326  944.598  944.968  946.609  942.741  944.881  942.919  944.314  949.842  942.064  944.968  954.217  939.454  942.160  944.816  963.946  949.446  947.341  957.551  948.204  953.631 
DATE 2015:209:19:30:00 obsn   4 az 244 el 50 freq_MHz  1421.5000 Tsys 188.600 Tant 923.019 vlsr    9.45 glat 30.169 glon 205.832 source Sun 
Fstart 1420.497 fstop 1422.503 spacing 0.009375 bw    2.400 fbw    2.000 MHz nfreq 256 nsam 1048576 npoint 214 integ    13 sigma    0.538 bsw 0
Spectrum 
 963.189  966.045  959.877  955.849  960.877  964.421  958.334  955.880  960.208  965.820  959.952  956.432  964.467  962.131  964.541  964.360  971.999  962.061  963.916  962.533  962.549  961.060  964.173  958.809  961.584  961.176  959.429  962.565  961.131  958.979  963.392  960.592  972.771  959.989  960.812  962.711  956.055  962.264  978.090  955.561  963.165  961.925  962.969  959.659  957.484  958.685  954.404  962.565  956.919  960.673  958.558  960.183  960.929  961.495  962.707  956.865  961.640  967.412  964.865  962.195  958.583  958.562  958.455  963.195  961.451  969.899  981.825  963.582  961.733  967.895  960.643  965.277  956.510  959.601  961.719  961.731  958.381  956.940  970.766  959.011  966.809  966.930  968.376  975.582  960.463  967.715  962.135  960.898  969.349  959.269  965.197  962.302  962.385  970.869  965.483  962.796  965.534  965.318  962.165  960.626  968.494  966.975  966.135  961.559  966.381  965.744  970.813  962.666  959.469  970.121  962.456  967.481  968.474  963.181  959.943  967.736  961.241  965.876  967.268  966.755  962.786  968.350  972.685  970.696  969.705  967.305  964.121  968.559  971.328  973.222  975.305  967.291  963.988  971.164  975.522  970.407  963.701  973.189  971.931  973.330  974.189  966.094  968.718  966.412  967.135  974.896  971.610  973.615  969.441  971.449  973.328  969.995  972.543  966.080  972.084  978.104  971.854  965.485  969.899  969.249  971.479  971.320  967.700  969.636  969.245  973.896  969.509  964.126  970.168  962.970  973.330  964.267  971.978  963.187  965.672  970.512  970.760  969.870  969.067  966.059  966.366  971.955  971.695  973.281  968.928  973.823  975.769  973.958  976.502  969.354  977.382  972.509  970.779  974.940  973.572  971.336  972.830  969.152  972.230  970.453  973.485  977.273  967.028  973.369  978.779  967.333  969.763  971.653  989.320  976.615  974.180  983.541  973.319  980.834 
DATE 2015:209:19:30:13 obsn   5 az 244 el 50 freq_MHz  1421.5000 Tsys 188.600 Tant 928.079 vlsr    9.45 glat 30.169 glon 205.832 source Sun 
Fstart 1420.497 fstop 1422.503 spacing 0.009375 bw    2.400 fbw    2.000 MHz nfreq 256 nsam 1048576 npoint 214 integ    15 sigma    0.498 bsw 0
Spectrum 
 983.799  987.781  980.962  976.389  984.151  985.717  980.394  977.582  982.296  988.208  982.889  978.947  985.632  983.369  985.485  985.931  991.917  984.064  987.007  982.712  983.824  983.486  987.593  981.045  983.822  982.175  981.073  982.457  981.219  981.218  984.902  983.343  992.060  980.558  983.070  985.768  978.184  983.920  999.392  977.631  984.655  982.651  984.848  982.060  978.775  981.816  977.176  983.577  977.028  984.255  979.783  981.773  981.629  985.136  984.693  977.364  983.506  988.443  985.746  983.205  982.378  979.760  978.893  985.755  982.920  989.360 1003.724  986.908  984.560  990.530  984.272  987.397  979.438  980.982  986.088  984.852  980.446  978.854  989.855  980.684  987.957  989.012  990.359  995.676  984.331  989.490  985.435  982.101  992.732  982.082  986.441  982.732  985.209  992.782  986.710  983.887  988.399  985.789  984.061  983.548  989.713  987.789  985.926  983.525  986.689  987.485  990.542  984.669  982.714  995.662  984.243  990.067  988.660  984.210  984.692  989.795  983.664  987.948  988.515  987.198  984.223  990.585  993.968  993.109  992.753  989.164  987.642  991.756  993.442  995.160  996.427  988.400  986.793  992.579  997.490  993.823  987.496  995.099  993.069  996.039  994.845  986.522  993.692  990.233  989.848  995.689  992.729  995.005  991.011  994.146  995.251  990.961  994.080  988.142  995.033 1003.723  994.755  986.873  993.518  990.371  994.474  993.928  988.375  992.246  991.283  995.847  990.058  985.694  992.902  985.365  993.019  987.556  992.290  986.808  988.140  991.182  993.298  991.997  990.045  987.488  988.312  991.845  993.477  995.907  993.389  995.631  997.180  994.603 1001.159  991.735  997.962  993.536  991.767  998.067  995.806  992.628  994.238  992.325  996.673  992.044  997.466  998.411  990.845  995.741 1001.484  990.463  993.102  993.949 1011.313 1000.695  997.188 1004.152  996.014 1001.866 
DATE 2015:209:19:30:26 obsn   6 az 244 el 50 freq_MHz  1421.5000 Tsys 188.600 Tant 938.293 vlsr    9.45 glat 30.169 glon 205.832 source Sun 
Fstart 1420.497 fstop 1422.503 spacing 0.009375 bw    2.400 fbw    2.000 MHz nfreq 256 nsam 1048576 npoint 214 integ    17 sigma    0.466 bsw 0
Spectrum 
1000.710 1003.244  997.171  992.914 1000.799 1000.849  996.356  993.804  999.186 1004.427  999.692  995.788 1002.580 1000.204 1001.458 1003.461 1007.511  999.167 1003.988 1001.229 1001.924 1001.484 1004.779  997.132 1001.500  999.314  999.423  998.382  997.250  997.590 1002.403 1000.669 1007.135  995.623  999.095 1001.301  995.204  999.091 1015.127  995.817 1001.178 1000.372 1003.400  997.186  993.751  999.143  994.180  999.274  994.110 1000.521  997.468  998.227  998.106 1001.686 1000.659  995.428 1000.027 1005.949 1002.571  999.354 1000.992  995.510  996.877 1002.109 1000.659 1005.633 1020.587 1004.428 1000.981 1006.447 1000.777 1004.107  996.329  998.575 1003.290 1000.206  997.064  997.338 1007.194  996.735 1005.429 1004.570 1006.375 1014.048  999.550 1006.451 1003.346  998.633 1011.432  999.795 1002.270 1000.521 1004.088 1009.217 1003.498 1000.940 1006.263 1002.044 1000.516  999.713 1006.707 1003.274 1002.051 1001.617 1003.136 1003.644 1006.948 1001.782 1000.031 1012.953 1000.552 1007.840 1003.896 1000.525 1001.216 1006.272 1002.153 1003.410 1005.986 1006.636 1002.382 1006.439 1011.076 1010.442 1009.909 1006.017 1003.478 1009.493 1009.712 1010.615 1010.031 1005.643 1003.623 1008.733 1015.810 1010.812 1004.722 1011.316 1008.902 1012.256 1011.295 1004.981 1009.987 1006.411 1008.001 1011.777 1009.759 1010.822 1007.081 1010.257 1012.649 1007.640 1012.226 1004.588 1012.335 1019.905 1011.170 1004.977 1008.470 1006.886 1010.324 1011.912 1006.155 1009.879 1007.837 1012.893 1007.607 1002.202 1010.676 1004.152 1010.787 1004.673 1008.356 1003.074 1004.387 1007.381 1011.065 1009.309 1006.450 1004.430 1005.634 1011.055 1010.195 1011.283 1011.802 1011.336 1012.303 1012.774 1018.289 1008.841 1015.494 1011.059 1008.245 1014.988 1012.722 1008.876 1010.153 1007.554 1014.650 1009.226 1013.417 1015.212 1006.119 1011.840 1019.429 1007.048 1009.944 1010.281 1027.891 1017.389 1014.179 1021.647 1012.915 1017.448 
DATE 2015:209:19:30:39 obsn   7 az 244 el 50 freq_MHz  1421.5000 Tsys 188.600 Tant 941.381 vlsr    9.45 glat 30.169 glon 205.832 source Sun 
Fstart 1420.497 fstop 1422.503 spacing 0.009375 bw    2.400 fbw    2.000 MHz nfreq 256 nsam 1048576 npoint 214 integ    20 sigma    0.439 bsw 0
Spectrum 
1014.384 1014.447 1008.917 1005.120 1013.478 1014.080 1010.550 1007.254 1011.270 1016.914 1013.197 1008.739 1015.680 1012.261 1014.158 1014.940 1020.834 1012.872 1015.345 1014.422 1012.963 1013.917 1018.571 1010.509 1013.080 1013.196 1012.982 1010.774 1010.861 1009.943 1014.424 1011.787 1018.981 1009.024 1010.972 1013.613 1006.509 1012.028 1026.834 1008.341 1015.234 1012.789 1015.869 1009.760 1007.307 1013.511 1007.402 1010.852 1007.077 1011.039 1010.130 1010.868 1012.871 1015.294 1011.713 1005.246 1013.023 1018.309 1014.989 1011.640 1014.393 1009.142 1009.407 1014.763 1013.463 1020.371 1034.634 1014.734 1014.303 1018.176 1014.195 1015.423 1009.370 1011.710 1015.973 1011.313 1009.340 1010.772 1019.719 1009.331 1017.687 1018.743 1017.948 1028.111 1012.632 1017.859 1016.008 1011.673 1023.142 1011.885 1014.690 1013.776 1015.896 1021.162 1014.153 1014.220 1017.769 1014.102 1013.798 1012.248 1017.232 1016.378 1015.624 1014.324 1015.174 1016.192 1018.857 1014.039 1011.558 1024.210 1013.711 1019.090 1017.790 1012.410 1013.887 1019.175 1015.210 1015.263 1019.834 1018.772 1014.902 1019.361 1021.966 1021.023 1023.178 1017.488 1015.999 1020.829 1022.382 1021.720 1023.423 1019.532 1016.276 1020.287 1029.278 1024.480 1017.844 1024.640 1022.192 1024.874 1025.122 1018.214 1022.928 1017.926 1019.395 1024.776 1022.390 1022.516 1019.988 1023.890 1026.544 1020.883 1025.340 1017.414 1024.204 1032.610 1023.728 1017.175 1022.095 1019.112 1022.102 1023.541 1019.852 1023.840 1020.714 1025.730 1019.541 1015.541 1022.807 1017.378 1024.311 1017.631 1020.756 1015.264 1016.683 1020.098 1024.113 1020.223 1020.046 1018.116 1017.924 1023.574 1023.078 1025.435 1023.749 1024.198 1025.071 1025.453 1031.576 1022.212 1026.451 1023.958 1021.381 1028.822 1023.971 1021.941 1022.776 1020.086 1030.264 1024.265 1024.444 1027.896 1018.876 1025.254 1033.064 1020.435 1023.392 1023.186 1041.058 1029.187 1027.217 1033.131 1026.632 1031.042 
DATE 2015:209:19:30:55 obsn   8 az 245 el 50 freq_MHz  1421.5000 Tsys 188.600 Tant 891.248 vlsr    9.45 glat 30.169 glon 205.832 source Sun 
Fstart 1420.497 fstop 1422.503 spacing 0.009375 bw    2.400 fbw    2.000 MHz nfreq 256 nsam 1048576 npoint 214 integ    22 sigma    0.417 bsw 0
Spectrum 
1024.938 1026.884 1020.151 1015.763 1022.793 1024.290 1022.334 1018.179 1022.073 1027.366 1024.052 1020.177 1026.057 1022.641 1025.290 1024.988 1030.568 1023.409 1026.862 1026.638 1022.977 1023.585 1029.076 1020.987 1023.732 1023.813 1023.196 1020.789 1021.680 1021.554 1025.417 1021.690 1029.536 1019.957 1022.252 1023.937 1018.229 1022.777 1036.799 1018.129 1025.002 1022.882 1026.744 1021.155 1016.766 1024.278 1018.725 1021.033 1018.022 1022.316 1021.696 1020.826 1023.316 1025.159 1023.299 1016.998 1022.255 1027.387 1025.074 1021.140 1026.717 1019.249 1020.663 1026.163 1024.180 1030.043 1045.987 1024.979 1024.455 1028.398 1025.584 1026.631 1020.435 1023.488 1025.107 1022.383 1019.775 1020.175 1030.292 1021.028 1030.316 1030.087 1027.884 1037.343 1023.377 1027.952 1026.448 1022.302 1035.547 1022.399 1023.368 1024.554 1024.865 1030.139 1026.047 1025.085 1028.563 1023.203 1024.562 1022.573 1027.614 1026.200 1026.654 1024.795 1025.063 1026.947 1028.887 1025.417 1022.127 1035.596 1024.258 1029.076 1026.672 1022.974 1025.139 1029.955 1025.643 1024.066 1030.698 1030.357 1025.749 1030.102 1033.276 1032.577 1034.513 1028.147 1026.762 1030.396 1032.872 1033.391 1033.001 1030.203 1028.081 1031.917 1040.858 1035.375 1027.024 1036.519 1033.746 1035.889 1035.895 1029.593 1033.486 1028.127 1031.355 1035.376 1032.732 1032.976 1030.230 1033.563 1038.146 1030.913 1034.075 1027.760 1035.926 1042.679 1036.030 1029.284 1031.308 1030.633 1035.886 1033.376 1032.064 1033.952 1028.901 1037.409 1030.588 1027.484 1033.711 1028.618 1035.781 1028.159 1030.419 1025.043 1027.793 1029.254 1032.869 1029.821 1030.238 1029.508 1028.818 1034.430 1033.868 1036.506 1034.483 1034.573 1036.344 1036.315 1042.551 1033.438 1037.487 1035.517 1032.651 1039.812 1034.593 1032.467 1034.240 1031.779 1040.568 1034.022 1034.466 1038.221 1029.112 1033.678 1043.199 1030.744 1033.678 1034.137 1050.302 1039.412 1037.211 1043.706 1038.511 1042.362 
