DATE 2015:203:19:23:47 obsn   0 az 244 el 52 freq_MHz  1421.5000 Tsys 182.760 Tant 863.732 vlsr   10.18 glat 25.424 glon 202.187 source Sun 
Fstart 1420.497 fstop 1422.503 spacing 0.009375 bw    2.400 fbw    2.000 MHz nfreq 256 nsam 1048576 npoint 214 integ     4 sigma    0.903 bsw 0
Spectrum 
 681.940  682.324  691.344  690.642  689.632  694.297  687.793  687.954  686.394  689.974  694.353  694.190  694.701  687.565  692.585  692.576  696.348  692.447  687.607  693.766  701.818  696.286  694.279  689.518  693.064  691.491  687.806  693.198  698.660  691.686  688.514  694.604  686.750  689.427  692.256  690.510  685.960  687.666  721.671  689.427  689.288  684.344  691.877  691.614  687.469  694.815  694.898  694.508  691.114  692.373  690.534  698.721  689.137  696.523  701.314  698.179  687.997  697.011  701.829  689.596  691.008  688.500  694.835  699.451  685.561  694.458  693.408  681.117  686.176  692.568  687.867  693.833  685.000  695.460  689.915  691.376  694.632  692.520  693.024  692.605  695.979  696.592  692.933  700.568  696.200  692.195  698.032  692.810  704.375  689.374  687.135  690.368  692.477  693.179  697.164  690.961  694.212  695.809  694.222  692.685  692.379  691.674  696.097  690.988  684.579  686.747  692.061  688.001  689.754  698.692  695.953  691.836  692.004  703.207  693.481  687.941  696.452  689.297  693.397  698.348  690.467  698.405  697.531  693.770  699.818  689.193  693.081  694.667  697.010  698.389  699.111  693.566  690.145  703.598  690.697  700.378  696.434  698.309  696.970  697.024  701.008  694.899  690.248  692.264  695.671  699.543  692.092  686.629  694.286  697.012  695.050  700.448  691.310  689.786  693.018  705.857  695.537  695.608  697.027  693.259  703.653  692.412  702.985  700.278  695.070  705.886  698.251  696.367  692.717  697.333  708.961  706.677  694.198  689.156  692.000  697.810  696.289  695.440  697.075  687.641  692.131  697.011  695.272  695.963  697.349  695.252  705.065  697.519  697.148  695.031  702.195  698.932  701.668  695.128  700.293  687.972  699.406  694.386  698.010  697.258  694.247  695.104  695.850  698.869  706.497  698.668  698.377  698.832  700.475  700.214  699.118  691.644  698.203  692.151 
DATE 2015:203:19:24:00 obsn   1 az 244 el 52 freq_MHz  1421.5000 Tsys 182.760 Tant 860.365 vlsr   10.18 glat 25.424 glon 202.187 source Sun 
Fstart 1420.497 fstop 1422.503 spacing 0.009375 bw    2.400 fbw    2.000 MHz nfreq 256 nsam 1048576 npoint 214 integ     7 sigma    0.737 bsw 0
Spectrum 
 797.680  802.636  805.517  804.830  802.686  808.393  806.430  801.284  801.726  808.450  805.854  806.249  813.695  804.762  809.619  807.100  816.328  809.170  803.225  810.420  813.001  811.793  809.650  810.900  809.839  808.011  807.618  808.107  808.601  807.053  804.664  807.536  812.551  809.015  804.266  807.888  802.389  801.574  833.395  803.140  806.677  796.947  809.621  805.402  804.487  812.142  810.365  813.520  803.665  806.926  807.741  811.812  804.353  811.336  816.198  812.445  805.163  812.949  815.494  803.927  806.164  801.811  811.284  815.134  804.244  809.564  812.922  796.992  807.451  806.637  805.395  808.348  802.538  815.040  806.028  810.209  806.266  808.497  811.171  804.362  813.557  814.987  807.134  818.781  809.823  804.218  813.614  808.841  822.499  807.699  801.770  809.544  806.629  808.019  810.120  803.282  806.479  811.537  811.409  810.642  809.461  806.286  813.092  804.231  804.915  803.720  809.720  806.898  807.437  819.873  809.734  810.472  808.423  818.189  810.465  806.397  812.553  807.251  809.169  812.511  806.894  812.911  815.199  808.902  814.380  806.612  810.016  813.194  818.648  814.579  811.907  808.731  806.774  815.238  807.822  818.238  810.099  816.203  814.874  812.942  824.745  807.653  809.819  811.762  813.453  817.456  812.787  807.388  814.020  816.311  816.355  814.874  810.943  811.959  806.735  825.469  816.594  814.923  814.427  810.968  822.058  810.124  818.427  821.209  816.625  829.722  814.391  812.974  813.006  816.736  832.145  815.885  814.615  812.285  812.366  811.990  813.706  809.456  810.997  808.100  810.137  809.733  809.428  816.289  811.299  814.099  827.546  813.976  820.078  812.161  821.283  821.372  819.194  815.846  817.385  808.368  816.129  815.223  813.130  816.433  809.710  818.625  813.882  815.893  824.339  815.094  816.722  818.573  820.925  815.562  816.262  814.937  814.703  810.814 
DATE 2015:203:19:24:13 obsn   2 az 244 el 52 freq_MHz  1421.5000 Tsys 182.760 Tant 879.966 vlsr   10.18 glat 25.424 glon 202.187 source Sun 
Fstart 1420.497 fstop 1422.503 spacing 0.009375 bw    2.400 fbw    2.000 MHz nfreq 256 nsam 1048576 npoint 214 integ     9 sigma    0.639 bsw 0
Spectrum 
 856.457  861.950  862.479  867.265  859.787  870.462  864.543  862.333  861.695  865.999  867.477  867.530  874.083  863.137  869.111  867.021  876.597  868.868  868.315  873.488  869.801  876.973  877.190  871.053  871.593  864.782  867.529  868.917  866.956  868.352  864.809  868.684  873.084  867.910  864.012  864.409  862.166  861.482  891.894  863.645  872.042  858.373  874.702  865.685  865.943  873.329  867.818  871.834  866.194  865.718  870.997  872.414  864.096  869.268  877.535  872.610  865.443  871.761  874.929  867.455  870.087  861.834  871.326  879.068  866.907  871.150  876.691  860.673  871.744  868.870  868.079  872.359  861.838  873.111  870.205  869.753  869.201  868.128  873.129  863.867  871.997  876.834  865.084  881.056  869.406  863.758  874.148  872.948  888.222  870.075  864.423  868.986  870.027  869.254  874.556  866.997  870.450  872.182  870.669  874.394  871.327  868.020  872.840  866.499  868.748  867.164  872.888  865.350  869.294  882.606  867.782  870.626  868.981  878.135  871.390  866.352  873.616  867.000  872.742  877.076  867.834  873.295  875.953  870.296  878.702  865.495  869.112  871.605  879.744  874.330  870.476  868.178  872.596  874.771  872.610  881.287  871.659  876.741  873.300  872.137  884.285  871.969  873.141  871.704  873.393  880.747  875.103  871.391  877.338  875.880  876.552  873.728  875.276  873.410  866.175  887.560  880.283  873.581  875.812  869.818  884.315  871.734  882.149  880.411  877.420  894.056  873.654  875.120  876.099  878.052  891.940  877.305  875.474  872.281  874.923  873.196  876.671  870.684  875.647  869.879  872.972  869.085  874.017  880.074  874.164  874.420  890.287  879.082  881.736  872.446  882.593  882.460  883.586  877.563  880.207  870.562  878.613  874.468  875.564  875.844  872.715  880.527  878.281  876.683  885.641  875.549  879.131  880.567  880.981  877.739  877.695  874.864  879.129  869.775 
DATE 2015:203:19:24:27 obsn   3 az 244 el 52 freq_MHz  1421.5000 Tsys 182.760 Tant 879.973 vlsr   10.18 glat 25.424 glon 202.187 source Sun 
Fstart 1420.497 fstop 1422.503 spacing 0.009375 bw    2.400 fbw    2.000 MHz nfreq 256 nsam 1048576 npoint 214 integ    11 sigma    0.571 bsw 0
Spectrum 
 890.919  897.373  898.181  901.221  898.659  908.819  902.081  898.789  899.058  902.149  903.200  903.259  911.333  901.859  907.165  905.256  913.128  908.268  908.023  912.414  905.145  912.548  916.119  908.665  910.664  902.457  905.352  906.603  901.791  905.168  903.580  905.128  912.634  903.337  902.039  900.580  897.980  899.605  929.166  898.709  911.461  895.664  913.408  900.478  905.553  911.018  907.174  909.976  905.598  904.670  908.932  911.715  901.848  908.921  912.608  907.773  906.779  908.729  913.033  903.588  907.763  901.515  908.443  917.984  907.203  910.406  916.853  901.658  908.320  906.011  905.051  911.492  902.273  911.338  908.219  909.530  905.770  907.363  912.167  901.530  909.189  914.672  902.876  919.724  903.337  903.008  912.349  911.252  926.851  908.669  904.091  907.017  907.278  906.669  914.150  904.995  907.837  908.865  905.831  911.938  908.066  907.594  910.857  905.027  909.840  906.012  911.580  903.050  907.825  919.936  905.279  906.984  910.073  914.920  910.399  904.267  909.400  903.088  912.206  916.755  908.003  911.866  919.160  913.312  916.276  906.963  910.332  909.918  914.439  913.000  909.710  905.766  910.486  914.146  909.951  919.668  910.525  913.266  911.605  910.969  924.022  908.688  913.474  909.520  910.365  918.432  911.997  907.683  914.362  916.059  914.390  912.367  914.821  912.882  908.713  926.056  918.093  915.195  916.649  911.785  926.163  912.784  920.356  922.114  916.429  935.819  912.746  912.901  917.263  914.918  931.293  915.789  915.197  913.523  912.620  911.443  913.232  907.550  913.430  906.912  911.700  905.846  910.974  918.770  912.317  913.346  929.413  917.477  920.923  911.260  920.358  920.452  921.870  919.542  918.799  910.221  919.600  912.353  914.932  915.870  911.434  921.626  915.225  914.850  923.133  912.321  916.528  919.461  919.253  915.736  920.017  913.729  918.511  908.174 
DATE 2015:203:19:24:40 obsn   4 az 244 el 52 freq_MHz  1421.5000 Tsys 182.760 Tant 914.154 vlsr   10.18 glat 25.425 glon 202.187 source Sun 
Fstart 1420.497 fstop 1422.503 spacing 0.009375 bw    2.400 fbw    2.000 MHz nfreq 256 nsam 1048576 npoint 214 integ    13 sigma    0.521 bsw 0
Spectrum 
 919.713  926.370  925.651  927.816  924.936  934.195  929.201  925.596  927.089  927.493  927.704  928.381  938.592  925.894  931.810  934.168  937.384  935.086  935.842  939.571  933.572  937.818  943.344  935.322  939.048  929.825  932.711  937.045  929.426  932.042  929.302  932.799  937.641  927.786  930.406  927.404  925.195  929.102  955.734  927.320  936.863  922.349  941.874  927.785  932.619  934.670  933.270  936.964  934.223  931.440  935.764  936.310  928.128  939.923  940.611  935.932  934.361  936.825  939.624  930.753  935.359  929.787  936.212  942.885  933.967  939.151  944.564  930.665  934.672  933.322  934.937  937.274  930.167  939.100  935.446  937.725  933.402  935.136  940.325  929.986  933.102  940.378  932.241  949.513  930.132  932.650  940.435  938.594  955.213  935.712  932.951  935.511  933.174  935.611  942.303  932.032  935.232  935.585  933.564  939.792  935.228  934.006  940.022  934.248  938.099  934.514  939.263  933.175  934.574  948.315  933.856  933.299  938.233  941.201  938.799  932.201  935.996  931.387  939.488  945.539  934.926  939.522  944.742  941.187  942.923  932.335  937.532  937.847  944.231  937.733  936.709  935.272  938.965  940.803  938.850  946.071  936.901  940.059  937.506  938.758  948.902  937.313  938.446  936.658  935.680  947.394  939.847  935.385  942.815  944.548  940.488  940.260  941.150  939.157  937.771  955.596  944.171  942.313  945.244  941.629  955.072  941.413  946.533  949.330  944.209  962.553  940.082  940.584  945.336  942.687  959.221  943.231  941.341  944.508  939.035  941.236  940.957  938.091  940.237  933.884  939.826  934.238  939.520  946.914  939.540  941.135  958.330  945.368  948.476  941.834  947.826  947.606  948.745  946.493  947.429  938.171  948.702  941.063  941.886  944.514  939.842  948.101  943.549  943.746  952.237  940.791  940.526  944.284  945.814  943.174  945.899  941.856  946.406  937.645 
DATE 2015:203:19:24:53 obsn   5 az 244 el 52 freq_MHz  1421.5000 Tsys 182.760 Tant 916.785 vlsr   10.18 glat 25.425 glon 202.187 source Sun 
Fstart 1420.497 fstop 1422.503 spacing 0.009375 bw    2.400 fbw    2.000 MHz nfreq 256 nsam 1048576 npoint 214 integ    15 sigma    0.483 bsw 0
Spectrum 
 942.330  949.124  947.177  948.060  945.694  956.109  951.687  947.424  947.179  948.048  950.207  951.977  960.813  948.401  954.351  957.432  961.006  957.184  957.825  961.835  957.184  959.370  964.378  958.756  961.589  953.312  952.952  957.035  953.985  955.235  950.295  952.607  958.589  948.796  951.818  950.377  948.658  951.386  976.627  951.858  957.798  944.329  963.046  949.305  953.892  956.134  955.018  958.349  953.824  952.837  956.095  959.014  949.599  961.820  962.062  955.611  956.224  959.071  960.329  952.654  956.378  950.985  957.079  965.771  959.018  960.835  965.987  954.009  955.968  955.876  956.927  959.739  952.842  962.758  957.646  959.520  954.488  955.297  962.105  954.004  954.055  962.674  955.369  972.059  953.211  954.895  965.503  961.213  977.675  958.988  955.621  958.332  955.109  957.598  966.136  954.839  958.458  958.139  956.877  962.351  959.441  956.291  963.386  956.906  959.187  955.459  963.643  955.503  957.690  971.168  955.649  955.942  959.236  963.621  960.757  954.675  957.943  953.849  962.865  966.467  957.805  961.228  966.877  963.452  966.073  954.496  958.886  959.023  964.534  960.252  957.782  957.756  960.749  960.680  962.815  967.108  960.188  963.713  957.595  961.754  970.916  960.499  963.953  960.330  959.943  970.684  962.846  957.447  966.230  967.516  961.796  963.103  964.750  962.711  959.622  980.109  967.406  964.891  967.317  963.683  978.722  966.249  970.769  971.238  966.729  985.099  963.429  962.477  966.657  965.558  981.638  965.539  964.170  965.691  962.733  962.947  963.919  963.203  961.528  956.647  962.273  957.488  960.445  967.052  962.491  963.453  979.000  966.905  971.279  963.914  967.694  969.384  970.756  965.556  970.183  961.217  971.396  962.646  965.244  966.394  962.945  969.882  967.292  964.523  973.325  962.421  963.060  967.701  967.179  965.737  966.745  967.182  968.353  960.285 
DATE 2015:203:19:25:07 obsn   6 az 244 el 52 freq_MHz  1421.5000 Tsys 182.760 Tant 921.509 vlsr   10.18 glat 25.425 glon 202.187 source Sun 
Fstart 1420.497 fstop 1422.503 spacing 0.009375 bw    2.400 fbw    2.000 MHz nfreq 256 nsam 1048576 npoint 214 integ    17 sigma    0.452 bsw 0
Spectrum 
 959.526  965.294  963.628  965.164  962.869  972.601  968.841  964.762  964.701  965.664  966.716  968.767  979.119  967.026  972.449  975.272  978.195  974.373  975.557  980.135  974.783  976.454  980.481  974.558  977.761  971.071  970.048  974.306  970.704  972.949  968.291  968.274  975.170  966.349  968.716  968.966  967.579  968.732  992.928  968.439  975.768  961.516  981.322  966.682  970.443  973.773  971.076  974.879  971.808  969.728  971.893  976.430  967.313  979.630  978.479  972.439  973.727  975.906  979.296  970.003  973.288  968.331  974.678  984.536  976.052  978.393  983.027  971.538  972.266  972.606  974.529  976.121  970.848  978.851  974.710  976.423  973.843  972.307  980.617  971.647  970.697  980.974  972.616  988.306  970.966  973.492  981.604  977.964  994.195  976.023  973.105  977.295  973.197  975.145  982.490  971.229  975.587  975.732  975.340  979.431  975.648  974.812  980.504  973.625  976.976  972.399  981.245  972.964  973.715  989.565  975.064  972.847  975.203  981.099  979.372  973.456  973.388  971.510  981.162  984.257  975.702  980.379  985.635  978.739  982.851  971.320  975.177  975.216  982.058  978.148  974.830  975.784  978.032  977.839  980.906  984.809  977.061  980.147  975.970  980.114  988.977  978.501  982.176  979.063  975.683  988.859  980.689  975.779  984.429  984.646  981.261  982.882  981.592  980.247  978.299  996.294  984.482  982.829  983.418  981.687  996.260  982.611  987.461  989.723  984.951 1001.584  980.067  979.296  983.205  982.654 1000.319  984.167  982.588  982.788  981.370  980.255  980.695  981.410  979.036  975.873  980.188  976.349  977.277  985.423  979.547  980.633  994.870  984.181  989.875  981.833  985.195  985.589  986.508  982.611  986.828  980.224  988.026  979.862  983.337  984.553  980.399  986.438  983.127  983.307  991.977  981.544  978.922  985.164  986.459  985.775  984.476  984.909  985.018  976.603 
DATE 2015:203:19:25:22 obsn   7 az 245 el 51 freq_MHz  1421.5000 Tsys 182.760 Tant 697.093 vlsr   10.18 glat 25.425 glon 202.187 source Sun 
Fstart 1420.497 fstop 1422.503 spacing 0.009375 bw    2.400 fbw    2.000 MHz nfreq 256 nsam 1048576 npoint 214 integ    20 sigma    0.426 bsw 0
Spectrum 
 971.568  977.689  974.988  976.007  974.947  983.644  979.914  977.377  976.704  977.603  977.711  979.922  990.919  978.715  984.772  987.114  990.393  985.585  987.796  991.461  986.821  986.864  992.138  985.995  991.069  984.048  983.284  985.949  982.167  983.859  980.684  981.083  987.449  977.281  981.280  980.948  979.709  979.893 1005.201  979.383  986.451  973.292  991.218  977.671  981.033  985.355  982.032  984.734  983.966  981.301  985.128  987.114  981.105  991.464  989.473  985.305  984.748  987.959  991.588  984.134  983.697  979.038  985.263  996.066  987.716  990.545  995.137  984.624  985.134  983.851  986.318  986.714  983.882  990.290  986.877  987.503  984.181  983.816  992.533  983.435  982.301  991.970  985.323 1001.738  981.939  985.455  993.226  990.065 1005.437  989.864  984.697  988.259  986.080  986.252  993.339  983.597  986.652  987.706  989.109  991.942  987.898  987.126  991.314  984.887  989.767  983.692  993.143  986.058  985.924 1002.113  986.859  985.743  986.401  992.526  990.988  984.313  987.334  984.260  992.225  996.067  987.158  990.285  997.274  990.396  996.458  983.558  986.476  987.682  994.084  991.527  987.583  987.150  989.647  990.500  993.133  996.729  988.642  992.786  988.603  991.482 1000.544  989.176  993.564  991.505  988.106 1000.650  992.236  988.220  997.472  997.043  994.063  995.125  993.256  992.569  988.412 1008.296  997.780  994.584  995.025  993.125 1007.750  994.366  998.540 1001.209  998.043 1013.403  993.131  992.652  995.777  994.663 1010.774  995.571  994.959  994.647  993.583  992.439  993.057  993.437  990.245  988.968  991.886  988.333  989.111  997.096  991.842  994.233 1006.078  994.719 1000.522  994.787  998.097  996.825  997.279  995.160  997.820  991.095 1000.968  992.696  994.971  995.324  993.913  998.140  995.733  994.003 1004.760  993.092  990.147  996.382  999.019  997.858  997.103  997.404  996.595  988.565 
DATE 2015:203:19:25:35 obsn   8 az 245 el 51 freq_MHz  1421.5000 Tsys 182.760 Tant 702.954 vlsr   10.18 glat 25.425 glon 202.188 source Sun 
Fstart 1420.497 fstop 1422.503 spacing 0.009375 bw    2.400 fbw    2.000 MHz nfreq 256 nsam 1048576 npoint 214 integ    22 sigma    0.404 bsw 0
Spectrum 
 960.972  966.160  964.132  965.338  964.695  972.653  967.886  966.364  965.543  967.448  966.928  969.162  979.619  967.866  973.698  975.805  979.362  974.974  977.214  979.720  975.560  976.096  980.557  974.714  978.808  972.179  972.199  975.010  969.685  972.957  969.156  969.973  975.928  965.633  970.167  969.592  969.957  969.807  993.344  969.354  977.083  963.358  979.918  967.634  969.792  974.465  970.712  972.495  972.692  970.176  973.922  976.364  971.055  980.300  978.000  974.541  973.214  976.988  979.232  971.696  972.446  968.938  974.863  984.684  976.054  978.584  984.342  974.242  973.102  972.377  974.687  975.183  972.720  979.347  976.336  975.099  974.112  971.889  980.547  971.643  971.078  979.725  974.459  990.087  970.931  975.376  980.860  979.430  992.753  977.540  973.891  976.508  974.587  976.139  982.190  973.839  975.026  976.791  977.822  980.107  975.692  976.058  980.325  973.655  978.295  973.227  983.376  975.730  974.700  992.073  975.945  974.311  975.028  981.793  979.351  972.885  975.473  973.292  981.124  984.337  975.577  979.638  985.621  979.226  985.953  972.759  975.531  976.347  981.439  979.961  977.278  975.949  978.886  979.670  982.756  986.140  978.108  981.341  976.796  980.655  989.957  978.246  981.365  980.384  976.837  989.915  981.079  977.006  985.324  985.289  982.774  984.146  982.463  981.258  978.257  998.263  986.903  985.111  982.950  983.666  997.346  983.619  987.529  989.705  986.560 1001.727  982.671  982.130  984.518  984.035  999.739  983.803  984.666  985.298  981.836  982.487  981.248  981.845  979.518  977.500  981.768  977.272  977.611  987.542  982.184  982.588  993.595  983.453  989.645  983.241  986.748  985.428  985.880  984.125  987.375  980.552  989.518  981.236  984.096  984.606  982.734  986.847  983.696  982.165  993.356  982.176  980.008  984.534  988.084  987.614  985.600  986.458  986.272  977.167 
