DATE 2015:208:19:08:13 obsn   0 az   0 el 60 freq_MHz  1421.5000 Tsys 182.760 Tant -9.155 vlsr   -9.18 glat 40.751 glon 135.428 source at_stow
Fstart 1420.497 fstop 1422.503 spacing 0.009375 bw    2.400 fbw    2.000 MHz nfreq 256 nsam 1048576 npoint 214 integ     5 sigma    0.861 bsw 0
Spectrum 
 334.744  339.958  335.698  335.847  338.203  338.765  341.323  338.502  337.485  339.468  336.356  337.528  338.995  334.680  338.635  335.791  338.684  339.195  338.000  336.350  339.959  337.845  338.922  338.122  338.662  337.515  338.150  337.203  336.750  335.588  336.919  336.464  333.260  337.642  337.295  339.180  336.107  336.697  356.506  337.361  334.312  335.744  333.809  337.113  332.133  336.176  336.187  340.477  338.189  337.108  340.380  338.393  336.824  339.600  336.132  331.633  342.251  338.505  336.500  338.621  337.443  334.783  332.527  333.861  338.294  338.935  339.811  336.719  338.926  336.322  333.639  337.849  336.648  337.867  336.764  336.529  333.772  338.003  335.929  335.008  339.263  338.357  337.090  336.992  338.854  341.477  336.582  338.471  336.489  337.414  336.634  333.792  335.203  335.998  334.647  337.097  335.543  335.876  337.964  338.475  335.822  334.149  336.096  333.528  333.694  335.742  336.582  334.635  335.724  336.844  337.267  333.803  333.594  334.048  340.274  335.268  339.013  337.870  335.714  334.245  338.659  335.343  337.382  336.054  341.400  337.325  334.915  337.170  334.145  336.414  335.502  335.802  337.985  337.296  337.917  336.847  336.283  336.037  336.133  333.648  332.322  337.236  336.524  336.869  336.442  334.305  338.210  339.234  338.539  332.941  336.401  334.522  334.417  337.758  335.544  337.123  335.107  335.679  334.840  334.280  340.544  338.342  333.094  334.235  336.116  336.188  337.785  336.345  331.841  336.215  333.874  333.235  336.044  338.255  333.479  336.704  334.549  335.307  332.090  335.275  336.306  335.429  334.005  336.250  337.002  335.797  336.752  338.414  335.626  336.486  334.632  332.884  334.909  337.167  336.406  335.668  335.521  333.867  337.285  334.880  335.961  335.357  335.447  338.882  336.832  334.371  335.434  332.346  332.407  336.152  334.307  337.409  338.897  335.712 
DATE 2015:208:19:08:26 obsn   1 az   0 el 60 freq_MHz  1421.5000 Tsys 182.760 Tant -8.575 vlsr   -9.18 glat 40.762 glon 135.411 source at_stow
Fstart 1420.497 fstop 1422.503 spacing 0.009375 bw    2.400 fbw    2.000 MHz nfreq 256 nsam 1048576 npoint 214 integ     7 sigma    0.714 bsw 0
Spectrum 
 284.689  288.436  285.313  286.656  288.026  288.349  289.589  287.655  287.017  288.476  285.926  286.985  287.581  284.387  287.367  286.378  288.932  288.700  287.351  286.248  288.624  286.839  288.435  287.444  288.790  286.876  286.923  286.524  286.601  284.791  286.083  286.267  283.602  286.356  286.341  287.890  285.350  286.666  307.301  286.055  284.095  284.360  283.813  286.735  282.508  286.359  285.547  288.970  286.987  286.867  288.003  287.185  286.162  287.831  285.085  282.749  290.354  288.311  285.855  286.926  285.571  284.788  283.543  284.369  287.185  287.646  288.171  285.426  287.924  284.927  283.473  286.079  285.949  286.477  286.283  285.335  283.755  287.004  285.225  284.052  287.231  286.903  286.156  286.321  287.211  288.626  285.598  287.068  285.326  285.833  285.690  283.794  284.315  284.910  284.185  285.531  284.601  284.255  285.585  287.221  284.936  283.453  285.273  283.470  283.046  284.753  285.900  284.297  284.797  285.253  286.035  283.661  283.503  284.077  287.747  284.608  286.973  286.686  284.877  283.939  286.407  284.256  286.112  285.936  289.644  286.823  284.460  285.740  283.626  285.459  284.184  284.848  287.048  286.240  286.246  285.694  285.772  284.988  285.472  283.964  282.507  286.489  284.720  285.542  285.650  284.162  286.514  287.004  287.056  283.264  285.320  283.623  284.463  286.499  284.479  285.901  284.524  285.079  284.240  283.678  288.488  286.261  282.776  283.895  284.872  285.277  286.354  285.409  282.665  285.407  282.719  283.229  284.909  286.281  283.000  285.906  283.830  285.062  282.142  284.160  285.367  283.605  283.081  285.550  285.514  284.685  285.800  286.920  284.800  285.282  283.690  283.262  284.081  285.550  285.204  284.772  284.845  283.270  286.903  284.917  285.613  284.477  284.973  286.462  285.900  283.579  283.981  282.927  281.902  284.634  284.444  286.116  286.475  285.645 
DATE 2015:208:19:08:39 obsn   2 az   0 el 60 freq_MHz  1421.5000 Tsys 182.760 Tant -8.363 vlsr   -9.18 glat 40.773 glon 135.395 source at_stow
Fstart 1420.497 fstop 1422.503 spacing 0.009375 bw    2.400 fbw    2.000 MHz nfreq 256 nsam 1048576 npoint 214 integ     9 sigma    0.623 bsw 0
Spectrum 
 258.400  261.587  259.130  260.475  261.184  261.751  262.440  261.042  261.233  261.423  259.702  259.968  261.597  258.644  261.134  259.472  262.841  262.032  261.174  260.494  261.481  260.434  262.137  260.960  262.874  260.183  259.994  260.245  260.222  258.356  259.091  259.855  257.988  259.780  259.588  260.836  258.702  260.085  281.128  259.322  258.678  258.081  257.678  259.428  257.104  259.720  259.589  261.849  260.226  259.884  260.999  259.853  259.816  260.844  258.812  256.699  263.749  261.816  259.495  259.754  258.905  257.923  256.915  258.179  260.296  260.312  261.855  258.970  261.121  258.835  257.186  259.432  259.033  259.950  259.772  259.328  257.563  259.912  258.963  258.064  260.298  260.134  259.730  260.428  260.984  261.291  259.006  260.573  258.812  258.846  258.923  257.735  257.910  257.871  257.482  258.599  257.874  257.920  258.889  259.562  258.098  257.282  258.882  256.888  256.625  258.320  258.989  257.750  258.036  258.160  259.015  257.356  257.339  257.553  259.909  258.173  259.305  259.416  258.448  257.348  259.150  257.786  259.629  259.130  262.510  260.322  258.000  258.611  257.354  259.001  257.544  258.185  259.848  259.364  259.709  259.065  258.593  258.703  258.622  257.899  256.601  260.015  258.236  258.566  258.463  257.545  259.376  259.770  259.957  257.168  258.442  257.153  258.019  258.905  257.848  258.895  257.447  257.779  257.782  257.315  260.889  258.849  256.840  257.016  258.434  259.396  259.371  258.421  256.791  258.439  256.479  257.027  258.066  259.654  256.894  258.492  257.214  258.067  255.863  257.962  259.071  257.354  256.821  258.563  258.465  258.257  258.882  259.647  258.212  258.406  257.115  256.839  257.652  258.895  258.311  257.735  257.769  257.268  259.956  257.739  258.406  257.689  257.734  259.479  258.950  257.041  257.381  256.148  255.773  258.152  257.848  258.813  259.071  259.343 
DATE 2015:208:19:08:52 obsn   3 az   0 el 60 freq_MHz  1421.5000 Tsys 182.760 Tant -9.050 vlsr   -9.18 glat 40.783 glon 135.379 source at_stow
Fstart 1420.497 fstop 1422.503 spacing 0.009375 bw    2.400 fbw    2.000 MHz nfreq 256 nsam 1048576 npoint 214 integ    11 sigma    0.560 bsw 0
Spectrum 
 242.401  244.743  243.480  244.696  244.709  245.298  246.299  244.656  245.037  245.232  243.608  243.454  244.553  242.429  244.552  243.649  246.907  245.624  244.671  244.179  245.129  244.097  245.523  244.671  246.916  244.087  244.158  243.920  243.896  242.201  242.953  243.612  242.300  243.463  243.132  243.700  242.193  243.765  265.307  243.057  242.332  241.824  241.719  243.034  240.817  243.124  243.449  245.029  243.871  243.100  244.450  243.735  243.350  244.140  242.362  240.396  247.431  245.733  242.886  243.128  242.838  241.880  240.648  241.904  243.713  244.083  245.477  242.682  244.783  242.393  241.247  242.851  242.278  243.430  243.680  242.907  241.549  243.136  242.216  242.027  243.609  243.578  243.173  244.097  244.200  244.286  242.782  244.151  242.753  242.451  242.574  241.756  241.538  242.049  241.266  241.959  241.929  241.492  242.534  242.788  241.575  241.003  242.211  240.694  240.143  241.695  242.512  241.066  241.433  241.807  242.450  241.162  240.657  241.337  243.367  241.629  242.675  243.312  242.343  241.279  242.670  241.556  243.183  242.786  245.259  243.737  242.066  242.197  240.823  242.831  241.519  242.379  242.892  242.763  243.302  242.615  242.477  242.208  242.355  241.163  240.599  243.025  241.963  241.820  242.136  241.188  243.169  242.957  243.163  241.164  242.158  241.008  241.990  242.659  241.388  242.296  241.215  241.722  241.302  241.319  243.974  242.466  240.960  241.110  242.412  242.939  242.922  241.804  240.832  242.211  240.524  240.613  241.462  243.360  241.006  241.859  240.924  241.171  239.643  241.344  242.430  241.232  240.310  241.789  241.902  241.940  242.598  243.068  241.714  242.475  240.950  240.329  241.458  242.750  241.727  241.103  241.522  240.878  243.386  241.337  242.260  241.718  241.495  243.046  242.201  240.777  240.627  239.772  240.129  241.380  240.827  242.244  242.534  242.853 
DATE 2015:208:19:09:06 obsn   4 az   0 el 60 freq_MHz  1421.5000 Tsys 182.760 Tant -8.417 vlsr   -9.18 glat 40.793 glon 135.363 source at_stow
Fstart 1420.497 fstop 1422.503 spacing 0.009375 bw    2.400 fbw    2.000 MHz nfreq 256 nsam 1048576 npoint 214 integ    14 sigma    0.513 bsw 0
Spectrum 
 231.584  233.775  232.330  233.329  233.532  234.044  235.094  233.346  234.150  234.466  232.333  232.527  233.591  231.456  233.691  232.921  236.185  234.345  233.668  233.101  234.306  233.219  234.243  233.562  235.648  232.820  232.864  232.981  233.018  231.348  232.334  232.559  231.399  232.204  231.739  232.421  231.173  232.653  254.150  231.952  231.346  230.784  230.789  232.073  229.800  232.018  232.400  233.531  232.625  232.102  233.115  232.600  232.196  233.025  231.204  229.554  235.752  234.551  232.124  232.251  231.605  230.553  229.645  230.886  232.390  232.775  234.213  231.956  233.364  231.562  230.671  231.821  231.218  232.222  232.472  231.863  230.820  231.958  231.256  230.953  232.692  232.158  232.063  232.900  232.883  233.108  231.620  232.986  231.739  231.412  231.824  230.611  230.556  231.098  230.230  230.913  230.758  230.390  231.308  231.732  230.477  229.965  230.832  229.743  229.395  230.591  231.226  230.117  230.223  231.031  231.090  229.781  229.772  229.978  231.994  230.555  231.017  232.283  231.381  230.312  231.304  230.633  232.598  231.344  233.579  232.427  230.575  231.078  229.756  231.736  230.938  230.998  231.495  231.253  232.129  231.686  231.382  231.363  231.340  230.294  229.451  231.560  230.932  231.055  231.231  230.115  231.873  231.581  231.749  229.879  230.757  230.233  230.917  231.304  230.575  230.927  230.284  230.541  230.081  230.744  232.654  231.119  230.513  229.997  231.287  231.598  231.806  230.471  229.755  230.935  229.660  229.762  230.306  231.621  229.829  230.479  229.792  230.017  228.763  230.533  230.965  230.246  229.186  230.800  230.465  230.873  231.670  231.647  230.543  231.458  229.758  229.522  230.237  231.521  230.716  230.113  230.254  229.995  232.244  230.270  230.977  230.594  230.524  231.826  231.229  229.902  229.255  228.748  229.265  229.923  229.523  230.705  231.150  231.543 
DATE 2015:208:19:09:19 obsn   5 az   0 el 60 freq_MHz  1421.5000 Tsys 182.760 Tant  8.539 vlsr   -9.17 glat 40.804 glon 135.347 source at_stow
Fstart 1420.497 fstop 1422.503 spacing 0.009375 bw    2.400 fbw    2.000 MHz nfreq 256 nsam 1048576 npoint 214 integ    16 sigma    0.476 bsw 0
Spectrum 
 224.004  225.794  224.693  225.551  225.417  226.907  227.242  226.019  226.380  226.410  224.746  224.836  225.840  224.022  226.320  225.368  228.269  226.605  225.758  225.260  226.272  225.427  226.339  225.992  227.717  224.881  225.332  225.339  225.089  223.618  224.432  224.754  223.434  224.082  224.049  224.397  223.752  224.878  246.508  224.100  223.631  222.652  222.998  224.396  222.325  224.593  224.968  225.726  225.021  224.537  224.909  224.623  224.317  225.161  223.454  222.232  227.887  227.106  224.252  224.551  224.012  222.895  222.273  223.202  224.541  224.873  226.446  224.314  225.215  223.466  223.090  223.721  223.162  224.305  224.626  223.863  223.407  224.076  223.527  223.100  224.928  224.118  224.235  225.342  224.643  225.229  223.777  225.332  223.966  223.544  224.076  223.093  222.993  223.367  222.329  223.564  222.938  222.813  223.551  223.864  222.831  222.434  223.349  222.212  221.869  222.687  223.170  222.393  222.573  223.309  223.404  222.114  222.233  222.002  224.057  222.796  223.101  224.145  223.490  222.562  223.202  222.992  224.709  223.624  225.497  224.367  222.830  223.166  222.025  223.817  223.340  223.382  223.689  223.527  224.662  223.670  223.635  223.670  223.319  222.608  221.981  223.428  223.180  223.321  223.398  222.304  224.009  223.544  223.722  222.067  222.960  222.586  222.957  223.312  222.670  223.274  222.597  223.004  222.475  223.205  224.848  222.995  222.749  222.383  223.507  223.888  224.050  222.828  222.064  223.096  222.122  221.965  222.705  223.731  222.072  222.777  221.937  222.587  221.044  222.562  223.127  222.747  221.978  223.269  222.437  223.148  223.595  223.514  222.693  223.573  221.683  221.560  222.493  223.752  222.966  222.759  222.440  221.915  224.442  222.521  223.683  222.911  223.134  223.997  223.559  222.148  221.312  221.224  221.715  222.119  221.761  222.639  223.286  224.057 
DATE 2015:208:19:09:32 obsn   6 az   0 el 60 freq_MHz  1421.5000 Tsys 182.760 Tant 275.954 vlsr   -9.17 glat 40.815 glon 135.330 source at_stow
Fstart 1420.497 fstop 1422.503 spacing 0.009375 bw    2.400 fbw    2.000 MHz nfreq 256 nsam 1048576 npoint 214 integ    18 sigma    0.446 bsw 0
Spectrum 
 251.110  253.098  251.078  251.859  252.928  254.162  253.965  252.904  253.634  253.838  252.919  252.563  252.756  251.757  253.985  252.915  254.994  253.892  252.538  252.263  253.163  251.717  253.198  253.005  254.627  252.239  252.984  252.550  252.243  250.462  251.469  252.025  250.402  250.795  251.019  251.390  251.459  251.453  273.893  250.892  250.608  249.989  249.841  251.220  250.257  252.032  251.358  252.164  251.579  251.094  251.810  252.670  251.667  252.138  251.175  250.055  254.305  253.981  251.766  251.410  251.418  250.214  249.829  249.804  251.172  252.359  253.165  251.301  252.590  251.362  250.684  251.734  250.401  251.774  252.058  250.935  249.975  251.757  250.740  250.323  252.026  251.939  251.306  251.933  251.088  253.022  251.561  251.952  251.815  251.308  251.268  249.954  250.231  251.002  249.137  251.302  250.459  250.234  251.040  250.455  250.700  249.429  249.952  249.196  248.951  250.204  249.859  248.958  249.780  250.615  250.985  249.214  248.996  249.231  251.254  249.548  249.826  250.834  250.408  249.574  250.684  250.759  252.671  251.304  252.244  251.425  250.760  250.492  249.136  250.971  251.075  250.506  250.186  250.525  252.228  250.881  250.721  251.200  250.506  250.333  249.814  250.908  249.911  250.807  250.316  249.789  251.369  251.469  250.806  249.313  250.078  249.948  250.156  251.073  250.402  250.128  250.048  250.235  249.629  250.736  251.692  250.793  250.337  249.765  250.594  251.422  251.700  250.818  249.793  250.197  249.346  250.241  250.166  251.162  249.341  249.979  248.672  249.490  248.365  250.350  250.511  249.730  249.106  250.246  249.352  250.196  251.302  250.944  249.514  250.911  248.735  249.325  249.727  251.317  250.331  249.848  249.723  249.047  252.222  249.661  250.983  250.323  250.896  251.181  250.836  249.166  249.077  248.365  249.242  249.553  248.449  249.501  250.779  251.542 
DATE 2015:208:19:09:45 obsn   7 az   0 el 60 freq_MHz  1421.5000 Tsys 182.760 Tant 279.739 vlsr   -9.17 glat 40.825 glon 135.314 source at_stow
Fstart 1420.497 fstop 1422.503 spacing 0.009375 bw    2.400 fbw    2.000 MHz nfreq 256 nsam 1048576 npoint 214 integ    20 sigma    0.421 bsw 0
Spectrum 
 273.278  275.579  273.111  274.689  274.921  276.203  276.344  275.260  276.321  276.125  276.014  274.978  275.699  274.313  276.455  275.519  277.416  275.984  275.428  275.980  275.807  273.919  275.701  275.339  276.829  274.585  275.916  275.255  274.962  273.040  274.406  274.663  273.128  273.115  273.709  273.862  274.140  274.763  296.208  273.249  272.830  271.933  271.899  273.508  272.395  274.924  273.385  274.808  273.805  273.313  274.403  275.569  274.831  274.789  274.253  272.108  276.748  276.587  274.272  274.218  274.172  272.743  272.379  272.644  273.613  275.206  275.308  274.164  275.323  274.641  273.612  273.975  273.380  274.717  274.471  273.418  272.476  274.414  273.171  272.914  274.531  274.073  273.182  274.407  273.601  274.921  273.718  273.463  274.066  274.441  273.981  272.948  272.940  273.123  271.940  273.401  272.477  272.409  273.639  273.276  273.308  271.763  273.483  272.126  271.671  272.870  272.587  271.470  272.776  273.138  273.038  272.338  271.932  271.767  274.519  272.450  272.758  272.922  273.540  272.249  273.599  273.767  275.300  274.345  274.513  274.181  273.114  273.339  271.708  273.880  273.814  272.778  272.684  273.250  274.317  273.867  273.473  274.284  273.769  273.279  272.407  273.854  272.747  273.136  272.678  272.623  273.935  274.201  272.994  272.559  273.068  272.645  273.015  273.928  272.735  272.465  272.837  273.397  272.078  272.803  274.017  273.503  273.480  271.767  273.594  273.747  273.942  273.423  272.681  273.259  272.107  272.356  273.225  273.891  272.084  272.362  271.323  272.008  271.273  272.891  273.379  272.405  271.585  272.725  272.521  272.779  273.588  273.185  272.703  273.454  271.147  272.485  272.612  273.620  273.278  271.675  272.216  271.715  275.399  272.608  274.035  273.445  273.534  273.781  273.266  272.192  272.310  271.234  271.847  271.655  271.119  271.774  273.367  274.217 
DATE 2015:208:19:09:58 obsn   8 az   0 el 60 freq_MHz  1421.5000 Tsys 182.760 Tant 288.494 vlsr   -9.17 glat 40.836 glon 135.298 source at_stow
Fstart 1420.497 fstop 1422.503 spacing 0.009375 bw    2.400 fbw    2.000 MHz nfreq 256 nsam 1048576 npoint 214 integ    22 sigma    0.400 bsw 0
Spectrum 
