DATE 2014:084:19:19:11 obsn   0 az  50 el 25 freq_MHz   868.0000 Tsys 171.000 Tant 289.811 vlsr  -29.36 glat 18.718 glon 75.317 source at_stow
Fstart  866.997 fstop  869.003 spacing 0.009375 bw    2.400 fbw    2.000 MHz nfreq 256 nsam 1048576 npoint 214 integ     3 sigma    1.010 bsw 0
Spectrum 
 468.979  464.135  459.261  461.866  456.031  455.417  458.609  461.725  459.694  459.518  458.465  461.235  461.325  465.416  458.271  458.673  464.301  459.621  462.566  457.876  459.044  458.893  458.970  457.085  457.532  460.663  463.081  460.663  463.387  463.342  462.129  459.792  462.963  458.085  459.203  460.907  465.910  456.861  459.393  458.081  462.353  455.999  459.822  460.860  461.448  459.667  464.670  458.026  465.289  469.254  456.404  461.386  462.115  460.406  466.400  462.653  460.346  460.306  464.073  457.568  459.708  459.489  459.587  456.406  460.716  460.484  461.476  464.876  460.793  458.424  455.598  457.635  459.002  459.796  464.484  461.593  462.715  457.421  460.584  458.090  457.417  461.827  457.254  464.557  458.786  464.487  457.574  456.037  462.695  459.317  459.507  461.670  460.368  463.040  458.578  458.605  465.393  466.955  464.341  461.019  463.731  455.417  460.354  455.688  458.449  462.860  462.177  455.694  457.341  460.998  456.907  462.151  461.759  455.661  458.978  460.455  460.824  461.637  458.343  458.550  459.251  464.650  458.497  460.430  460.947  460.140  457.825  460.980  462.319  461.839  460.048  465.688  458.714  463.221  456.302  459.533  453.831  459.449  458.601  464.023  463.423  458.488  460.043  458.025  460.539  460.251  460.104  459.499  456.422  470.148  463.142  460.721  465.615  464.714  461.573  461.924  461.216  458.020  465.119  462.515  463.164  464.914  463.960  461.524  463.167  463.002  462.234  460.576  457.617  462.315  460.010  456.355  457.858  461.077  459.125  455.425  457.744  458.607  459.845  466.916  463.997  462.402  467.084  464.209  461.806  461.755  460.778  463.906  459.780  462.223  455.736  459.972  455.680  445.737  446.557  444.701  444.635  447.897  624.035  443.317  437.752  446.135  449.893  448.863  458.069  458.256  465.666  463.325  466.229  462.956  462.326  454.629  458.742  463.695 
DATE 2014:084:19:19:13 obsn   1 az  50 el 25 freq_MHz   868.0000 Tsys 171.000 Tant 287.923 vlsr  -29.36 glat 18.710 glon 75.320 source at_stow
Fstart  866.997 fstop  869.003 spacing 0.009375 bw    2.400 fbw    2.000 MHz nfreq 256 nsam 1048576 npoint 214 integ     5 sigma    0.771 bsw 0
Spectrum 
 467.377  461.729  460.778  462.093  458.204  456.224  458.276  460.496  457.540  459.385  459.656  461.008  459.988  460.468  460.602  460.113  461.954  461.680  462.646  459.100  459.920  459.313  460.792  458.914  458.082  458.478  464.148  460.397  463.643  461.137  462.027  457.701  463.627  458.737  458.536  460.285  461.919  459.039  459.258  457.376  460.222  457.635  459.258  458.222  462.755  459.850  463.768  457.926  461.553  464.785  455.719  461.079  460.502  460.348  462.882  461.402  460.854  457.255  463.394  457.012  457.369  461.725  461.147  455.985  462.884  460.978  462.801  463.799  460.305  459.494  458.356  459.505  462.023  458.851  462.933  458.457  460.064  458.276  462.358  457.701  458.019  459.585  459.256  461.262  458.302  462.834  462.628  457.549  462.122  459.525  459.416  460.173  459.438  458.751  460.103  457.369  465.930  465.561  465.082  459.473  463.710  458.155  460.270  460.244  458.979  462.817  460.986  457.565  457.628  461.419  455.888  460.783  462.097  456.353  457.797  458.060  461.449  458.775  460.354  460.031  459.939  460.436  458.602  460.244  459.793  459.109  457.755  459.539  463.290  463.099  460.405  462.657  461.055  462.837  459.050  458.529  457.086  459.277  458.654  460.246  462.087  461.051  459.555  456.721  459.230  461.433  458.996  460.704  456.996  467.656  460.617  462.238  462.960  459.439  461.044  459.644  464.123  460.490  463.759  462.740  462.020  463.594  463.689  462.748  460.957  460.904  461.525  461.889  457.424  462.856  460.299  457.712  457.944  459.966  462.174  455.600  458.142  459.120  458.892  460.828  461.310  461.183  466.435  463.624  461.609  464.135  461.237  463.642  458.884  461.233  457.674  461.020  455.583  448.231  445.971  444.068  444.172  447.343  623.516  444.953  437.240  445.693  447.576  447.919  454.494  458.692  465.640  465.231  464.753  462.337  460.879  456.240  458.042  465.809 
DATE 2014:084:19:19:16 obsn   2 az  50 el 25 freq_MHz   868.0000 Tsys 171.000 Tant 288.141 vlsr  -29.36 glat 18.702 glon 75.323 source at_stow
Fstart  866.997 fstop  869.003 spacing 0.009375 bw    2.400 fbw    2.000 MHz nfreq 256 nsam 1048576 npoint 214 integ     7 sigma    0.648 bsw 0
Spectrum 
 467.466  461.699  461.553  461.005  457.413  456.804  458.321  461.458  458.791  458.756  460.801  461.591  460.187  460.877  462.164  460.896  461.355  461.657  461.814  457.810  460.550  460.623  460.963  458.740  457.960  457.844  463.826  460.222  462.802  461.927  461.256  456.997  462.363  457.553  458.986  459.777  460.675  456.903  458.517  457.352  459.289  456.520  459.446  456.931  460.819  459.583  461.468  458.981  460.836  462.814  454.962  459.650  459.051  461.607  462.430  460.643  458.589  457.747  462.806  457.189  457.421  461.008  460.261  457.453  462.348  459.863  460.595  462.241  460.815  460.317  458.535  460.663  460.564  457.329  461.600  457.961  460.160  458.919  461.159  458.302  457.537  459.555  458.759  458.588  458.063  462.725  461.944  457.775  460.894  460.364  459.637  461.393  460.285  461.118  459.645  458.441  464.562  463.157  464.329  460.041  462.050  459.004  459.303  459.118  458.408  462.796  459.515  457.085  456.364  460.537  455.953  460.486  460.675  457.153  456.954  458.183  459.515  459.242  460.646  461.762  458.462  459.205  460.369  460.816  458.838  460.577  457.293  459.194  462.263  462.062  459.142  462.232  460.051  461.033  458.870  458.813  456.469  460.009  457.343  458.571  459.979  459.344  459.976  458.497  458.923  459.800  460.517  460.267  456.072  466.921  460.441  459.562  461.504  459.719  460.434  461.140  462.683  459.239  464.504  462.939  463.292  463.619  462.886  460.966  460.043  461.464  460.498  461.728  458.626  461.304  459.882  457.870  458.055  458.467  460.268  455.590  458.530  457.636  457.520  460.547  460.756  460.136  465.308  464.375  462.722  464.786  462.391  462.359  459.369  460.114  459.057  461.100  455.740  449.397  446.123  443.434  444.555  445.383  622.457  444.251  438.151  444.762  446.257  446.803  453.564  458.434  464.193  465.203  465.911  461.952  460.995  457.432  458.009  465.156 
DATE 2014:084:19:19:18 obsn   3 az  50 el 25 freq_MHz   868.0000 Tsys 171.000 Tant 288.649 vlsr  -29.36 glat 18.696 glon 75.325 source at_stow
Fstart  866.997 fstop  869.003 spacing 0.009375 bw    2.400 fbw    2.000 MHz nfreq 256 nsam 1048576 npoint 214 integ    10 sigma    0.570 bsw 0
Spectrum 
 466.998  462.495  461.566  459.604  458.473  456.952  458.455  459.832  457.831  458.595  459.200  460.566  460.463  461.741  461.552  461.495  460.461  461.565  461.443  458.114  461.068  461.879  462.260  459.524  456.911  457.167  462.631  459.797  460.774  460.869  460.318  456.414  461.413  456.259  458.343  458.684  459.664  458.415  458.381  456.766  458.941  455.720  458.320  456.244  459.505  460.099  461.063  460.025  460.599  460.503  456.023  458.561  457.709  460.308  462.200  461.176  458.605  457.495  462.199  457.151  458.480  460.768  460.011  457.267  462.464  459.217  459.816  460.287  460.986  459.621  459.990  459.553  460.243  458.411  462.417  457.040  460.763  458.645  460.764  457.807  458.496  460.029  458.197  460.364  458.447  462.332  461.162  458.839  459.185  460.203  458.807  460.522  460.695  461.643  459.633  457.569  463.627  461.467  463.435  460.364  460.867  458.767  458.586  458.598  457.500  460.355  458.931  455.965  457.051  459.566  455.521  459.897  460.077  457.118  457.070  457.711  459.257  459.298  459.588  460.911  457.076  457.714  460.139  460.317  457.662  459.432  458.220  458.966  461.356  460.881  459.030  460.337  460.057  460.496  458.171  458.687  456.133  459.266  458.968  457.781  458.760  460.174  459.496  458.727  459.098  459.083  460.392  458.988  457.810  465.719  460.876  459.354  461.968  460.483  460.619  461.189  461.634  459.646  464.193  462.631  461.987  463.050  462.168  460.355  460.431  462.398  460.282  461.092  458.261  460.271  459.056  458.610  458.581  458.106  460.552  455.470  459.116  457.644  458.268  460.783  461.417  459.880  465.157  463.330  462.199  464.719  462.807  463.097  459.907  460.087  459.190  460.905  453.948  449.296  446.565  443.807  444.757  445.169  621.114  443.394  437.956  444.952  446.761  447.710  452.293  457.953  463.927  464.705  465.406  463.118  461.792  457.926  456.272  464.588 
DATE 2014:084:19:19:21 obsn   4 az  50 el 25 freq_MHz   868.0000 Tsys 171.000 Tant 287.397 vlsr  -29.36 glat 18.688 glon 75.328 source at_stow
Fstart  866.997 fstop  869.003 spacing 0.009375 bw    2.400 fbw    2.000 MHz nfreq 256 nsam 1048576 npoint 214 integ    12 sigma    0.514 bsw 0
Spectrum 
 466.174  461.892  462.124  459.359  457.000  455.842  458.833  457.934  457.681  458.560  458.960  460.561  459.705  461.135  461.790  460.738  460.476  461.925  462.124  458.560  460.919  461.130  461.321  459.953  456.648  457.613  461.064  458.774  459.999  460.054  459.551  456.666  460.159  456.615  458.310  458.017  459.081  458.695  457.947  456.322  458.538  455.714  457.987  456.050  458.941  460.135  460.751  458.832  460.197  460.905  456.801  458.843  457.197  460.025  462.106  460.494  458.986  457.881  460.856  457.361  458.823  459.813  459.269  458.048  461.348  459.020  459.580  459.329  459.948  458.851  459.213  458.905  460.205  457.211  462.195  456.257  459.571  458.735  459.993  458.096  459.705  460.252  458.275  459.986  458.962  462.128  459.210  460.129  459.381  460.155  459.133  459.924  459.915  461.421  458.606  457.875  463.450  460.723  463.001  459.865  460.684  459.357  458.709  457.204  456.416  459.876  458.325  456.984  456.721  458.406  455.001  459.282  458.898  456.773  456.672  457.475  458.736  459.047  459.670  461.307  456.544  458.346  458.954  459.629  458.310  459.923  458.294  458.712  461.474  462.158  458.903  459.873  458.654  459.175  458.583  459.156  456.270  458.801  458.711  457.397  458.862  459.626  459.876  458.543  457.746  458.475  459.467  459.038  457.476  466.134  460.790  458.557  461.593  459.814  459.798  460.473  461.449  459.758  463.630  462.239  460.835  463.032  462.949  460.724  459.312  462.271  460.576  460.930  458.358  459.684  459.929  458.885  458.666  456.795  460.090  455.388  459.923  456.798  458.144  459.748  460.833  461.081  464.075  463.318  460.320  463.319  461.080  462.647  460.012  458.824  460.106  460.497  454.891  449.447  446.853  445.022  444.309  445.099  619.477  442.696  437.921  444.256  446.263  448.298  452.997  457.930  462.943  463.740  465.349  463.358  460.688  458.012  455.257  464.394 
DATE 2014:084:19:19:24 obsn   5 az  50 el 25 freq_MHz   868.0000 Tsys 171.000 Tant 285.572 vlsr  -29.36 glat 18.683 glon 75.330 source at_stow
Fstart  866.997 fstop  869.003 spacing 0.009375 bw    2.400 fbw    2.000 MHz nfreq 256 nsam 1048576 npoint 214 integ    14 sigma    0.472 bsw 0
Spectrum 
 465.346  462.451  462.146  458.648  457.898  456.028  459.043  457.971  457.514  458.245  458.717  459.905  460.012  460.644  461.893  460.102  460.702  461.212  461.149  458.182  461.473  460.498  460.847  459.650  456.031  456.979  461.199  459.339  459.300  459.069  458.813  456.137  459.921  456.484  457.724  457.393  458.235  458.087  457.006  456.062  458.070  456.043  458.832  456.302  458.882  459.833  460.110  458.751  459.517  460.397  456.730  459.070  457.590  460.422  461.708  459.544  458.541  457.553  460.996  456.919  459.536  459.826  459.179  457.418  459.895  457.985  458.884  459.498  459.201  458.334  458.519  458.907  459.544  456.583  460.632  456.573  459.008  459.045  458.923  457.968  458.866  459.652  458.449  459.331  458.694  462.138  459.188  459.950  459.675  459.692  459.315  460.259  459.792  460.391  458.303  458.279  462.905  460.174  461.927  458.707  460.118  459.244  457.992  458.057  457.125  459.905  458.576  456.027  457.382  458.617  455.536  459.233  458.174  456.733  456.591  457.244  457.870  459.190  459.762  461.059  456.864  457.900  459.473  459.216  459.442  459.979  458.804  459.515  461.049  462.324  458.566  459.319  457.992  459.434  458.502  458.500  456.389  458.034  458.070  458.328  458.318  459.077  459.743  458.633  456.599  457.911  458.967  458.445  457.996  465.379  460.823  458.282  460.824  459.047  459.855  460.686  461.009  460.600  463.491  462.577  461.366  462.474  462.576  461.162  459.042  461.949  460.371  460.669  457.956  459.785  459.079  457.971  459.441  457.067  458.653  455.531  458.770  456.418  457.900  460.298  460.645  460.266  462.825  462.110  460.778  463.070  461.313  462.268  459.533  458.422  459.495  460.586  453.471  448.920  445.749  444.323  444.041  445.177  619.047  442.115  438.129  443.439  446.720  448.189  452.873  457.720  462.498  462.903  465.538  463.141  459.859  456.974  454.812  465.124 
DATE 2014:084:19:19:26 obsn   6 az  50 el 25 freq_MHz   868.0000 Tsys 171.000 Tant 285.660 vlsr  -29.35 glat 18.674 glon 75.334 source at_stow
Fstart  866.997 fstop  869.003 spacing 0.009375 bw    2.400 fbw    2.000 MHz nfreq 256 nsam 1048576 npoint 214 integ    16 sigma    0.439 bsw 0
Spectrum 
 464.846  462.618  461.598  458.343  457.087  455.656  458.876  457.351  457.442  458.010  458.356  459.710  459.808  460.234  461.095  460.092  460.253  459.828  460.772  458.201  461.074  459.904  460.450  460.143  456.583  456.136  459.718  459.495  458.188  458.610  458.678  456.466  458.991  456.075  457.744  456.535  458.492  457.430  456.404  455.845  457.840  455.814  458.164  455.792  458.664  458.500  459.815  458.962  459.852  459.984  456.389  459.177  457.404  460.111  461.143  460.007  457.747  457.143  460.358  457.296  459.583  459.432  458.337  456.449  459.538  457.799  457.505  458.919  458.284  458.157  458.560  459.152  458.947  456.622  460.212  456.681  458.998  459.093  458.731  456.765  457.975  459.334  457.743  459.055  459.772  462.070  459.656  460.084  459.689  459.131  459.252  459.821  459.456  459.911  458.041  458.750  461.924  459.658  461.466  458.341  459.774  458.061  457.249  457.707  457.159  459.170  458.349  456.302  456.758  458.792  455.174  459.557  457.921  457.304  456.470  457.120  457.819  459.659  459.521  460.689  457.322  457.791  459.497  459.054  459.457  461.052  458.966  459.359  461.013  461.472  458.890  459.816  458.391  459.468  458.242  458.423  457.071  457.882  457.543  457.923  457.434  459.565  459.199  458.220  456.516  457.644  458.602  457.435  457.783  464.687  460.696  458.638  460.664  458.981  459.853  459.899  460.759  459.133  462.790  462.250  460.714  461.987  462.675  460.776  459.046  461.522  460.385  460.362  457.983  459.569  459.051  457.585  458.994  457.089  457.668  456.518  458.510  455.870  457.451  459.684  459.392  459.585  461.910  461.776  460.529  462.299  461.626  461.417  458.220  458.170  459.729  460.417  452.831  448.569  446.005  444.347  443.117  444.598  617.494  441.150  437.790  443.210  446.890  448.455  453.308  457.773  462.092  463.180  465.232  462.688  459.324  456.784  454.744  465.280 
DATE 2014:084:19:19:29 obsn   7 az  50 el 25 freq_MHz   868.0000 Tsys 171.000 Tant 286.244 vlsr  -29.35 glat 18.666 glon 75.337 source at_stow
Fstart  866.997 fstop  869.003 spacing 0.009375 bw    2.400 fbw    2.000 MHz nfreq 256 nsam 1048576 npoint 214 integ    18 sigma    0.412 bsw 0
Spectrum 
 464.750  462.174  461.139  458.973  456.883  455.459  458.740  457.142  457.651  457.449  458.252  459.562  459.442  459.921  460.710  459.512  459.595  459.422  460.349  458.492  460.589  459.783  460.063  460.180  456.480  455.950  459.255  459.068  457.924  458.656  458.748  456.546  458.120  456.167  457.471  456.168  459.020  457.425  455.860  455.319  457.452  455.993  458.278  455.413  458.332  458.347  459.716  458.251  458.942  459.851  456.666  459.268  457.162  459.609  460.606  460.111  458.106  457.600  460.047  456.721  459.396  458.818  458.372  456.269  459.116  457.962  457.796  458.536  458.365  458.027  458.119  459.490  458.700  455.952  459.519  456.692  458.343  458.363  458.171  457.029  457.180  458.486  457.355  458.696  459.536  461.743  458.980  459.975  459.242  459.403  459.222  459.159  459.486  459.954  457.632  458.917  461.711  459.000  460.655  457.850  459.223  457.721  457.463  457.871  456.883  458.599  457.766  456.387  457.152  458.366  455.461  459.457  457.600  456.388  456.536  457.144  457.715  459.848  458.442  460.215  457.477  457.583  459.662  458.582  459.411  461.028  458.227  458.929  461.241  461.241  458.340  458.896  458.221  459.441  458.203  457.963  457.084  458.126  457.609  457.125  458.000  458.797  458.690  457.667  456.657  456.260  457.938  456.679  456.895  464.892  460.008  458.475  460.379  458.451  459.198  458.885  460.615  458.596  462.474  462.031  460.524  461.288  462.127  460.097  458.291  461.180  459.682  459.377  458.456  458.856  458.939  457.779  458.808  457.272  456.947  456.728  458.240  455.946  457.176  459.621  459.120  459.964  461.448  461.145  460.645  462.456  460.999  461.166  458.010  457.903  459.713  459.338  452.296  448.702  445.502  443.509  442.558  443.940  616.524  440.973  438.121  442.891  446.508  447.970  452.667  457.232  461.474  462.382  464.317  461.709  459.325  456.639  453.965  464.481 
DATE 2014:084:19:19:37 obsn   8 az 124 el 28 freq_MHz   868.0000 Tsys 171.000 Tant 284.230 vlsr  -34.94 glat 41.261 glon  2.055 source S6 
Fstart  866.997 fstop  869.003 spacing 0.009375 bw    2.400 fbw    2.000 MHz nfreq 256 nsam 1048576 npoint 214 integ    21 sigma    0.390 bsw 0
Spectrum 
